t (µs);roll (deg);T_sample (µs)
46001132;1,6000061;
46011116;1,6000061;9984,000
46021116;1,6000061;10000,000
46031096;1,6000061;9980,000
46041104;1,6000061;10008,000
46051076;1,6100006;9972,000
46061076;1,6199951;10000,000
46071052;1,6199951;9976,000
46081040;1,6199951;9988,000
46091040;1,6300049;10000,000
46101024;1,6300049;9984,000
46111028;1,6300049;10004,000
46121008;1,6300049;9980,000
46131020;1,6399994;10012,000
46141028;1,6499939;10008,000
46150992;1,6499939;9964,000
46160984;1,6499939;9992,000
46170980;1,6499939;9996,000
46180968;1,6499939;9988,000
46190948;1,6600037;9980,000
46200928;1,6600037;9980,000
46210928;1,6600037;10000,000
46220928;1,6699982;10000,000
46230916;1,6699982;9988,000
46240924;1,6699982;10008,000
46250924;1,6699982;10000,000
46260884;1,6799927;9960,000
46270912;1,6799927;10028,000
46280888;1,6799927;9976,000
46290876;1,6900024;9988,000
46300884;1,6900024;10008,000
46310876;1,6900024;9992,000
46320836;1,6900024;9960,000
46330840;1,699997;10004,000
46340836;1,699997;9996,000
46350852;1,699997;10016,000
46360804;1,699997;9952,000
46370784;1,699997;9980,000
46380784;1,699997;10000,000
46390808;1,7100067;10024,000
46400780;1,7100067;9972,000
46410756;1,7100067;9976,000
46420732;1,7100067;9976,000
46430720;1,7200012;9988,000
46440716;1,7200012;9996,000
46450720;1,7200012;10004,000
46460716;1,7200012;9996,000
46470744;1,7200012;10028,000
46480696;1,7299957;9952,000
46490688;1,7299957;9992,000
46500692;1,7299957;10004,000
46510696;1,7299957;10004,000
46520664;1,7299957;9968,000
46530664;1,7299957;10000,000
46540640;1,7299957;9976,000
46550640;1,7400055;10000,000
46560628;1,7400055;9988,000
46570612;1,7400055;9984,000
46580592;1,7400055;9980,000
46590608;1,7400055;10016,000
46600592;1,7400055;9984,000
46610580;1,7400055;9988,000
46620572;1,75;9992,000
46630556;1,75;9984,000
46640556;1,75;10000,000
46650524;1,75;9968,000
46660532;1,75;10008,000
46670532;1,75;10000,000
46680536;1,7599945;10004,000
46690532;1,7599945;9996,000
46700512;1,7599945;9980,000
46710500;1,7599945;9988,000
46720468;1,7599945;9968,000
46730464;1,7700043;9996,000
46740452;1,7700043;9988,000
46750456;1,7899933;10004,000
46760436;1,7899933;9980,000
46770424;1,800003;9988,000
46780400;1,800003;9976,000
46790420;1,800003;10020,000
46800432;1,7899933;10012,000
46810408;1,7899933;9976,000
46820388;1,7899933;9980,000
46830396;1,800003;10008,000
46840380;1,800003;9984,000
46850372;1,8099976;9992,000
46860372;1,8099976;10000,000
46870372;1,8099976;10000,000
46880344;1,800003;9972,000
46890320;1,7899933;9976,000
46900340;1,6900024;10020,000
46910308;1,6000061;9968,000
46920300;1,550003;9992,000
46930268;1,6000061;9968,000
46940276;1,6600037;10008,000
46950260;1,6900024;9984,000
46960264;1,8099976;10004,000
46970252;2,0299988;9988,000
46980236;2,3200073;9984,000
46990224;2,6399994;9988,000
47000200;2,9700012;9976,000
47010208;3,2799988;10008,000
47020176;3,5299988;9968,000
47030188;3,699997;10012,000
47040160;3,7899933;9972,000
47050188;3,850006;10028,000
47060164;3,9100037;9976,000
47070156;3,9900055;9992,000
47080144;4,029999;9988,000
47090152;4,0899963;10008,000
47100132;4,2299957;9980,000
47110116;4,3899994;9984,000
47120108;4,5399933;9992,000
47130112;4,669998;10004,000
47140108;4,8200073;9996,000
47150088;4,9600067;9980,000
47160076;5,1399994;9988,000
47170096;5,399994;10020,000
47180084;5,7599945;9988,000
47190060;6,2400055;9976,000
47200056;6,800003;9996,000
47210056;7,4600067;10000,000
47220044;8,179993;9988,000
47230032;9,0099945;9988,000
47240032;9,960007;10000,000
47250024;11,059998;9992,000
47260004;12,309998;9980,000
47269980;13,660004;9976,000
47279988;15,100006;10008,000
47289972;16,61;9984,000
47299984;18,160004;10012,000
47309964;19,779999;9980,000
47319948;21,449997;9984,000
47329948;23,119995;10000,000
47339928;24,75;9980,000
47349936;26,279999;10008,000
47359928;27,679993;9992,000
47369908;28,940002;9980,000
47379908;30,050003;10000,000
47389884;31;9976,000
47399884;31,850006;10000,000
47409860;32,600006;9976,000
47419848;33,270004;9988,000
47429856;33,850006;10008,000
47439836;34,309998;9980,000
47449836;34,64;10000,000
47459828;34,850006;9992,000
47469820;34,92;9992,000
47479784;34,83;9964,000
47489776;34,589996;9992,000
47499776;34,17;10000,000
47509768;33,58;9992,000
47519760;32,789993;9992,000
47529744;31,770004;9984,000
47539740;30,509995;9996,000
47549736;29,009995;9996,000
47559724;27,279999;9988,000
47569724;25,410004;10000,000
47579724;23,440002;10000,000
47589724;21,410004;10000,000
47599704;19,369995;9980,000
47609704;17,350006;10000,000
47619708;15,389999;10004,000
47629684;13,539993;9976,000
47639688;11,7599945;10004,000
47649664;10;9976,000
47659672;8,210007;10008,000
47669652;6,2899933;9980,000
47679648;4,25;9996,000
47689640;2,1799927;9992,000
47699628;0,1499939;9988,000
47709628;-1,7899933;10000,000
47719616;-3,6600037;9988,000
47729596;-5,4900055;9980,000
47739604;-7,2899933;10008,000
47749600;-9,119995;9996,000
47759576;-10,9900055;9976,000
47769576;-12,889999;10000,000
47779580;-14,770004;10004,000
47789552;-16,570007;9972,000
47799532;-18,330002;9980,000
47809528;-20,080002;9996,000
47819532;-21,830002;10004,000
47829532;-23,570007;10000,000
47839500;-25,320007;9968,000
47849496;-27,080002;9996,000
47859488;-28,809998;9992,000
47869476;-30,410004;9988,000
47879468;-31,880005;9992,000
47889460;-33,17;9992,000
47899460;-34,270004;10000,000
47909448;-35,229996;9988,000
47919428;-36,070007;9980,000
47929428;-36,83;10000,000
47939420;-37,479996;9992,000
47949408;-37,940002;9988,000
47959384;-38,199997;9976,000
47969380;-38,240005;9996,000
47979352;-38,039993;9972,000
47989364;-37,509995;10012,000
47999344;-36,42;9980,000
48009328;-34,61;9984,000
48019340;-32;10012,000
48029344;-28,61;10004,000
48039328;-24,570007;9984,000
48049312;-20,059998;9984,000
48059312;-15,350006;10000,000
48069300;-10,610001;9988,000
48079300;-6,029999;10000,000
48089284;-1,7700043;9984,000
48099284;2,0700073;10000,000
48109272;5,419998;9988,000
48119260;8,350006;9988,000
48129264;10,889999;10004,000
48139240;13,119995;9976,000
48149240;15,100006;10000,000
48159232;16,919998;9992,000
48169216;18,699997;9984,000
48179192;20,479996;9976,000
48189196;22,350006;10004,000
48199188;24,320007;9992,000
48209164;26,339996;9976,000
48219172;28,410004;10008,000
48229164;30,460007;9992,000
48239156;32,429993;9992,000
48249128;34,25;9972,000
48259132;35,880005;10004,000
48269124;37,309998;9992,000
48279128;38,559998;10004,000
48289100;39,559998;9972,000
48299100;40,270004;10000,000
48309088;40,61;9988,000
48319068;40,47;9980,000
48329064;39,850006;9996,000
48339044;38,67;9980,000
48349028;36,960007;9984,000
48359020;34,740005;9992,000
48369020;32,03;10000,000
48379020;28,86;10000,000
48389012;25,270004;9992,000
48398992;21,320007;9980,000
48408996;17,070007;10004,000
48418976;12,580002;9980,000
48428988;7,970001;10012,000
48438964;3,3600006;9976,000
48448976;-1,1900024;10012,000
48458944;-5,5399933;9968,000
48468936;-9,520004;9992,000
48478932;-12,860001;9996,000
48488940;-15,389999;10008,000
48498920;-16,970001;9980,000
48508912;-17,580002;9992,000
48518896;-17,229996;9984,000
48528872;-16,070007;9976,000
48538876;-14,199997;10004,000
48548876;-11,7599945;10000,000
48558864;-8,889999;9988,000
48568876;-5,6799927;10012,000
48578848;-2,2700043;9972,000
48588852;1,3200073;10004,000
48598844;5,050003;9992,000
48608836;8,889999;9992,000
48618812;12,899994;9976,000
48628804;17;9992,000
48638816;21,009995;10012,000
48648796;24,809998;9980,000
48658776;28,369995;9980,000
48668764;31,630005;9988,000
48678760;34,53;9996,000
48688760;36,92;10000,000
48698756;38,699997;9996,000
48708732;39,789993;9976,000
48718744;40,160004;10012,000
48728712;39,83;9968,000
48738716;38,809998;10004,000
48748684;37,149994;9968,000
48758684;34,880005;10000,000
48768676;32,14;9992,000
48778676;29,020004;10000,000
48788664;25,630005;9988,000
48798648;22,020004;9984,000
48808640;18,279999;9992,000
48818644;14,429993;10004,000
48828636;10,470001;9992,000
48838636;6,5;10000,000
48848636;2,5700073;10000,000
48858616;-1,2200012;9980,000
48868584;-4,830002;9968,000
48878580;-8,190002;9996,000
48888576;-11,300003;9996,000
48898592;-14,149994;10016,000
48908556;-16,729996;9964,000
48918560;-18,979996;10004,000
48928540;-20,940002;9980,000
48938524;-22,649994;9984,000
48948524;-24,080002;10000,000
48958500;-25,240005;9976,000
48968512;-26,169998;10012,000
48978508;-26,899994;9996,000
48988492;-27,490005;9984,000
48998480;-27,949997;9988,000
49008472;-28,259995;9992,000
49018472;-28,440002;10000,000
49028456;-28,509995;9984,000
49038448;-28,449997;9992,000
49048420;-28,220001;9972,000
49058420;-27,720001;10000,000
49068432;-26,869995;10012,000
49078400;-25,520004;9968,000
49088408;-23,619995;10008,000
49098400;-21,130005;9992,000
49108388;-18,070007;9988,000
49118372;-14,539993;9984,000
49128372;-10,679993;10000,000
49138352;-6,630005;9980,000
49148352;-2,5;10000,000
49158336;1,6399994;9984,000
49168364;5,7100067;10028,000
49178344;9,669998;9980,000
49188336;13,419998;9992,000
49198312;16,929993;9976,000
49208300;20,25;9988,000
49218304;23,410004;10004,000
49228284;26,39;9980,000
49238280;29,160004;9996,000
49248268;31,690002;9988,000
49258248;33,89;9980,000
49268264;35,690002;10016,000
49278244;37,009995;9980,000
49288232;37,789993;9988,000
49298224;38;9992,000
49308200;37,660004;9976,000
49318184;36,809998;9984,000
49328192;35,429993;10008,000
49338172;33,53;9980,000
49348180;31,149994;10008,000
49358172;28,36;9992,000
49368148;25,270004;9976,000
49378148;22;10000,000
49388140;18,630005;9992,000
49398144;15,149994;10004,000
49408120;11,600006;9976,000
49418120;7,9600067;10000,000
49428108;4,220001;9988,000
49438132;0,47999573;10024,000
49448084;-3,1699982;9952,000
49458092;-6,630005;10008,000
49468080;-9,809998;9988,000
49478080;-12,649994;10000,000
49488072;-15,119995;9992,000
49498044;-17,220001;9972,000
49508040;-18,990005;9996,000
49518040;-20,509995;10000,000
49528024;-21,850006;9984,000
49538004;-23,070007;9980,000
49548004;-24,11;10000,000
49557996;-24,910004;9992,000
49567984;-25,460007;9988,000
49577980;-25,830002;9996,000
49587960;-26,119995;9980,000
49597952;-26,449997;9992,000
49607952;-26,809998;10000,000
49617940;-27,220001;9988,000
49627924;-27,660004;9984,000
49637924;-28,020004;10000,000
49647916;-28,259995;9992,000
49657900;-28,330002;9984,000
49667912;-28,220001;10012,000
49677876;-27,89;9964,000
49687864;-27,270004;9988,000
49697856;-26,279999;9992,000
49707856;-24,770004;10000,000
49717852;-22,619995;9996,000
49727848;-19,820007;9996,000
49737832;-16,419998;9984,000
49747832;-12,630005;10000,000
49757828;-8,630005;9996,000
49767804;-4,5599976;9976,000
49777820;-0,5200043;10016,000
49787796;3,4600067;9976,000
49797816;7,2899933;10020,000
49807788;10,910004;9972,000
49817776;14,360001;9988,000
49827772;17,720001;9996,000
49837760;21,119995;9988,000
49847740;24,580002;9980,000
49857728;28,020004;9988,000
49867716;31,270004;9988,000
49877700;34,130005;9984,000
49887720;36,440002;10020,000
49897696;38,059998;9976,000
49907700;38,899994;10004,000
49917684;38,929993;9984,000
49927676;38,179993;9992,000
49937648;36,690002;9972,000
49947632;34,600006;9984,000
49957620;32,059998;9988,000
49967640;29,190002;10020,000
49977608;26,11;9968,000
49987608;22,929993;10000,000
49997604;19,720001;9996,000
50007608;16,559998;10004,000
50017600;13,449997;9992,000
50027592;10,350006;9992,000
50037588;7,2299957;9996,000
50047576;4,0599976;9988,000
50057564;0,83999634;9988,000
50067540;-2,369995;9976,000
50077532;-5,4900055;9992,000
50087532;-8,410004;10000,000
50097512;-11,050003;9980,000
50107520;-13,350006;10008,000
50117504;-15,2599945;9984,000
50127500;-16,740005;9996,000
50137500;-17,729996;10000,000
50147488;-18,220001;9988,000
50157472;-18,25;9984,000
50167480;-17,949997;10008,000
50177440;-17,369995;9960,000
50187444;-16,529999;10004,000
50197432;-15,380005;9988,000
50207420;-13,800003;9988,000
50217420;-11,669998;10000,000
50227396;-9,020004;9976,000
50237400;-5,949997;10004,000
50247400;-2,600006;10000,000
50257408;0,94000244;10008,000
50267364;4,529999;9956,000
50277372;8,020004;10008,000
50287372;11,309998;10000,000
50297368;14,389999;9996,000
50307352;17,289993;9984,000
50317332;20,020004;9980,000
50327368;22,600006;10036,000
50337348;25,020004;9980,000
50347320;27,270004;9972,000
50357328;29,279999;10008,000
50367316;30,979996;9988,000
50377304;32,309998;9988,000
50387284;33,17;9980,000
50397260;33,520004;9976,000
50407252;33,28;9992,000
50417240;32,399994;9988,000
50427224;30,86;9984,000
50437200;28,710007;9976,000
50447200;26,050003;10000,000
50457208;22,960007;10008,000
50467204;19,490005;9996,000
50477192;15,690002;9988,000
50487176;11,619995;9984,000
50497172;7,3899994;9996,000
50507156;3,130005;9984,000
50517156;-1,0299988;10000,000
50527140;-4,9799957;9984,000
50537140;-8,539993;10000,000
50547136;-11,649994;9996,000
50557128;-14,279999;9992,000
50567112;-16,440002;9984,000
50577104;-18,119995;9992,000
50587092;-19,36;9988,000
50597080;-20,210007;9988,000
50607056;-20,740005;9976,000
50617060;-21,050003;10004,000
50627052;-21,210007;9992,000
50637036;-21,259995;9984,000
50647036;-21,199997;10000,000
50657020;-21,020004;9984,000
50667012;-20,630005;9992,000
50677008;-19,979996;9996,000
50686996;-18,940002;9988,000
50696976;-17,419998;9980,000
50706992;-15,419998;10016,000
50716972;-12,940002;9980,000
50726992;-10,039993;10020,000
50736980;-6,7899933;9988,000
50746964;-3,2599945;9984,000
50756956;0,44000244;9992,000
50766924;4,1900024;9968,000
50776944;7,9299927;10020,000
50786940;11,580002;9996,000
50796920;15,110001;9980,000
50806908;18,509995;9988,000
50816904;21,809998;9996,000
50826888;24,940002;9984,000
50836884;27,789993;9996,000
50846876;30,270004;9992,000
50856864;32,300003;9988,000
50866840;33,869995;9976,000
50876860;34,97;10020,000
50886836;35,600006;9976,000
50896824;35,78;9988,000
50906812;35,53;9988,000
50916768;34,869995;9956,000
50926768;33,820007;10000,000
50936760;32,399994;9992,000
50946772;30,539993;10012,000
50956764;28,240005;9992,000
50966756;25,580002;9992,000
50976744;22,619995;9988,000
50986744;19,440002;10000,000
50996744;16,100006;10000,000
51006716;12,660004;9972,000
51016724;9,139999;10008,000
51026692;5,6100006;9968,000
51036708;2,1399994;10016,000
51046688;-1,2100067;9980,000
51056672;-4,3399963;9984,000
51066680;-7,1600037;10008,000
51076676;-9,610001;9996,000
51086664;-11,630005;9988,000
51096652;-13,2599945;9988,000
51106656;-14,539993;10004,000
51116640;-15,5;9984,000
51126624;-16,179993;9984,000
51136608;-16,669998;9984,000
51146596;-17,050003;9988,000
51156596;-17,36;10000,000
51166592;-17,619995;9996,000
51176580;-17,800003;9988,000
51186564;-17,89;9984,000
51196560;-17,869995;9996,000
51206560;-17,729996;10000,000
51216540;-17,449997;9980,000
51226540;-17,020004;10000,000
51236524;-16,339996;9984,000
51246524;-15,339996;10000,000
51256500;-13,889999;9976,000
51266512;-11,929993;10012,000
51276488;-9,470001;9976,000
51286480;-6,600006;9992,000
51296472;-3,4199982;9992,000
51306488;-0,02999878;10016,000
51316464;3,4600067;9976,000
51326448;6,850006;9984,000
51336440;10,029999;9992,000
51346436;12,949997;9996,000
51356412;15,559998;9976,000
51366420;17,880005;10008,000
51376400;19,949997;9980,000
51386404;21,839996;10004,000
51396400;23,619995;9996,000
51406380;25,25;9980,000
51416384;26,679993;10004,000
51426372;27,850006;9988,000
51436364;28,710007;9992,000
51446376;29,14;10012,000
51456356;29,100006;9980,000
51466324;28,559998;9968,000
51476308;27,449997;9984,000
51486296;25,800003;9988,000
51496288;23,690002;9992,000
51506264;21,169998;9976,000
51516264;18,309998;10000,000
51526268;15,199997;10004,000
51536260;11,929993;9992,000
51546256;8,580002;9996,000
51556252;5,25;9996,000
51566232;2,0099945;9980,000
51576240;-1,0099945;10008,000
51586216;-3,7400055;9976,000
51596220;-6,1100006;10004,000
51606200;-8,139999;9980,000
51616192;-9,800003;9992,000
51626176;-11,190002;9984,000
51636168;-12,380005;9992,000
51646160;-13,449997;9992,000
51656160;-14,440002;10000,000
51666156;-15,339996;9996,000
51676140;-16,149994;9984,000
51686132;-16,830002;9992,000
51696124;-17,339996;9992,000
51706108;-17,669998;9984,000
51716112;-17,880005;10004,000
51726096;-18,050003;9984,000
51736092;-18,199997;9996,000
51746088;-18,330002;9996,000
51756064;-18,399994;9976,000
51766052;-18,369995;9988,000
51776060;-18,130005;10008,000
51786048;-17,600006;9988,000
51796028;-16,660004;9980,000
51806032;-15,279999;10004,000
51816016;-13,440002;9984,000
51825992;-11,149994;9976,000
51835992;-8,470001;10000,000
51845984;-5,5;9992,000
51855984;-2,3099976;10000,000
51865976;0,9700012;9992,000
51875952;4,2400055;9976,000
51885992;7,470001;10040,000
51895964;10,630005;9972,000
51905976;13,660004;10012,000
51915956;16,529999;9980,000
51925948;19,259995;9992,000
51935940;21,86;9992,000
51945920;24,330002;9980,000
51955900;26,660004;9980,000
51965884;28,779999;9984,000
51975868;30,61;9984,000
51985872;32,11;10004,000
51995852;33,270004;9980,000
52005844;34,08;9992,000
52015836;34,550003;9992,000
52025820;34,699997;9984,000
52035804;34,539993;9984,000
52045784;34,059998;9980,000
52055784;33,229996;10000,000
52065772;32;9988,000
52075764;30,339996;9992,000
52085752;28,259995;9988,000
52095760;25,800003;10008,000
52105756;23,020004;9996,000
52115764;20,009995;10008,000
52125748;16,869995;9984,000
52135748;13,669998;10000,000
52145744;10,470001;9996,000
52155728;7,25;9984,000
52165716;4,050003;9988,000
52175728;0,8699951;10012,000
52185704;-2,199997;9976,000
52195672;-5,100006;9968,000
52205672;-7,7599945;10000,000
52215660;-10,110001;9988,000
52225656;-12,139999;9996,000
52235632;-13,839996;9976,000
52245628;-15,179993;9996,000
52255608;-16,199997;9980,000
52265612;-16,940002;10004,000
52275604;-17,509995;9992,000
52285596;-18,050003;9992,000
52295584;-18,61;9988,000
52305592;-19,220001;10008,000
52315584;-19,809998;9992,000
52325568;-20,369995;9984,000
52335556;-20,869995;9988,000
52345536;-21,259995;9980,000
52355544;-21,559998;10008,000
52365528;-21,820007;9984,000
52375524;-22,059998;9996,000
52385520;-22,270004;9996,000
52395504;-22,419998;9984,000
52405480;-22,479996;9976,000
52415468;-22,39;9988,000
52425452;-22,100006;9984,000
52435464;-21,559998;10012,000
52445444;-20,699997;9980,000
52455440;-19,520004;9996,000
52465440;-17,979996;10000,000
52475456;-16,11;10016,000
52485424;-13,960007;9968,000
52495424;-11,610001;10000,000
52505424;-9,100006;10000,000
52515428;-6,470001;10004,000
52525400;-3,7899933;9972,000
52535400;-1,1300049;10000,000
52545396;1,4299927;9996,000
52555384;3,8399963;9988,000
52565352;6,050003;9968,000
52575360;8,059998;10008,000
52585356;9,899994;9996,000
52595332;11,589996;9976,000
52605344;13,110001;10012,000
52615332;14,4900055;9988,000
52625336;15,7400055;10004,000
52635328;16,910004;9992,000
52645316;18,029999;9988,000
52655304;19,039993;9988,000
52665300;19,899994;9996,000
52675292;20,570007;9992,000
52685280;20,979996;9988,000
52695252;21,149994;9972,000
52705240;21,11;9988,000
52715220;20,880005;9980,000
52725212;20,449997;9992,000
52735204;19,800003;9992,000
52745200;18,940002;9996,000
52755180;17,89;9980,000
52765180;16,699997;10000,000
52775164;15,410004;9984,000
52785172;14,100006;10008,000
52795136;12,779999;9964,000
52805136;11,470001;10000,000
52815116;10,179993;9980,000
52825132;8,860001;10016,000
52835132;7,5099945;10000,000
52845128;6,1600037;9996,000
52855112;4,830002;9984,000
52865092;3,5200043;9980,000
52875096;2,2400055;10004,000
52885104;1,0200043;10008,000
52895096;-0,16000366;9992,000
52905104;-1,4400024;10008,000
52915060;-2,9199982;9956,000
52925052;-4,580002;9992,000
52935044;-6,3399963;9992,000
52945024;-8,070007;9980,000
52955016;-9,630005;9992,000
52965012;-10,899994;9996,000
52974992;-11,910004;9980,000
52984980;-12,649994;9988,000
52994976;-13,160004;9996,000
53004960;-13,470001;9984,000
53014964;-13,679993;10004,000
53024944;-13,839996;9980,000
53034932;-13,9900055;9988,000
53044944;-14,139999;10012,000
53054944;-14,2599945;10000,000
53064920;-14,330002;9976,000
53074932;-14,300003;10012,000
53084920;-14,139999;9988,000
53094904;-13,820007;9984,000
53104888;-13,300003;9984,000
53114888;-12,570007;10000,000
53124868;-11,600006;9980,000
53134884;-10,440002;10016,000
53144868;-9,089996;9984,000
53154864;-7,619995;9996,000
53164836;-6,1399994;9972,000
53174832;-4,7100067;9996,000
53184804;-3,350006;9972,000
53194796;-2,1399994;9992,000
53204800;-1,1300049;10004,000
53214796;-0,41999817;9996,000
53224796;-0,039993286;10000,000
53234788;0,039993286;9992,000
53244772;-0,13999939;9984,000
53254756;-0,4900055;9984,000
53264756;-0,94000244;10000,000
53274736;-1,449997;9980,000
53284732;-1,9600067;9996,000
53294728;-2,4400024;9996,000
53304724;-2,8399963;9996,000
53314700;-3,1699982;9976,000
53324688;-3,3899994;9988,000
53334664;-3,5200043;9976,000
53344688;-3,600006;10024,000
53354676;-3,6799927;9988,000
53364660;-3,7700043;9984,000
53374660;-3,899994;10000,000
53384652;-4,0599976;9992,000
53394632;-4,2899933;9980,000
53404616;-4,619995;9984,000
53414604;-5,0399933;9988,000
53424600;-5,5399933;9996,000
53434588;-6,080002;9988,000
53444588;-6,6600037;10000,000
53454596;-7,2599945;10008,000
53464576;-7,830002;9980,000
53474564;-8,339996;9988,000
53484556;-8,789993;9992,000
53494556;-9,179993;10000,000
53504548;-9,470001;9992,000
53514532;-9,649994;9984,000
53524524;-9,7400055;9992,000
53534520;-9,729996;9996,000
53544516;-9,669998;9996,000
53554488;-9,539993;9972,000
53564476;-9,320007;9988,000
53574480;-8,9900055;10004,000
53584488;-8,529999;10008,000
53594464;-7,8600006;9976,000
53604452;-6,970001;9988,000
53614444;-5,8200073;9992,000
53624440;-4,4100037;9996,000
53634440;-2,7799988;10000,000
53644448;-0,9900055;10008,000
53654432;0,91000366;9984,000
53664404;2,9600067;9972,000
53674408;5,149994;10004,000
53684396;7,419998;9988,000
53694384;9,589996;9988,000
53704380;11,550003;9996,000
53714380;13,149994;10000,000
53724352;14,330002;9972,000
53734356;15,149994;10004,000
53744320;15,710007;9964,000
53754328;16,14;10008,000
53764316;16,529999;9988,000
53774320;16,940002;10004,000
53784316;17,449997;9996,000
53794288;18,029999;9972,000
53804272;18,679993;9984,000
53814264;19,320007;9992,000
53824268;19,880005;10004,000
53834264;20,289993;9996,000
53844260;20,550003;9996,000
53854232;20,660004;9972,000
53864236;20,649994;10004,000
53874216;20,559998;9980,000
53884196;20,419998;9980,000
53894196;20,25;10000,000
53904192;20,009995;9996,000
53914188;19,61;9996,000
53924164;19,020004;9976,000
53934164;18,169998;10000,000
53944168;16,929993;10004,000
53954172;15,220001;10004,000
53964132;13,059998;9960,000
53974152;10,539993;10020,000
53984132;7,7899933;9980,000
53994100;4,949997;9968,000
54004100;2,1600037;10000,000
54014096;-0,5;9996,000
54024064;-2,949997;9968,000
54034076;-5,1799927;10012,000
54044080;-7,220001;10004,000
54054092;-9,059998;10012,000
54064072;-10,660004;9980,000
54074052;-12,039993;9980,000
54084060;-13,220001;10008,000
54094044;-14,2599945;9984,000
54104044;-15,179993;10000,000
54114036;-15,970001;9992,000
54124008;-16,630005;9972,000
54133996;-17,190002;9988,000
54143996;-17,64;10000,000
54153988;-18;9992,000
54164000;-18,259995;10012,000
54173972;-18,460007;9972,000
54183960;-18,589996;9988,000
54193936;-18,649994;9976,000
54203940;-18,630005;10004,000
54213956;-18,539993;10016,000
54223916;-18,399994;9960,000
54233896;-18,199997;9980,000
54243896;-17,949997;10000,000
54253888;-17,660004;9992,000
54263884;-17,320007;9996,000
54273880;-16,949997;9996,000
54283868;-16,580002;9988,000
54293848;-16,199997;9980,000
54303848;-15,779999;10000,000
54313848;-15,320007;10000,000
54323832;-14,809998;9984,000
54333820;-14,210007;9988,000
54343812;-13,5099945;9992,000
54353800;-12,679993;9988,000
54363796;-11,720001;9996,000
54373784;-10,600006;9988,000
54383768;-9,320007;9984,000
54393772;-7,9100037;10004,000
54403764;-6,369995;9992,000
54413764;-4,6900024;10000,000
54423736;-2,9100037;9972,000
54433748;-1,0599976;10012,000
54443736;0,8200073;9988,000
54453736;2,6699982;10000,000
54463708;4,4900055;9972,000
54473712;6,2599945;10004,000
54483712;8,039993;10000,000
54493688;9,820007;9976,000
54503668;11,580002;9980,000
54513660;13,309998;9992,000
54523672;14,940002;10012,000
54533656;16,479996;9984,000
54543644;17,940002;9988,000
54553628;19,350006;9984,000
54563632;20,740005;10004,000
54573628;22,119995;9996,000
54583608;23,5;9980,000
54593596;24,850006;9988,000
54603596;26,179993;10000,000
54613596;27,419998;10000,000
54623588;28,509995;9992,000
54633576;29,399994;9988,000
54643564;30,070007;9988,000
54653560;30,5;9996,000
54663544;30,720001;9984,000
54673516;30,710007;9972,000
54683496;30,479996;9980,000
54693500;29,990005;10004,000
54703500;29,229996;10000,000
54713476;28,179993;9976,000
54723484;26,869995;10008,000
54733456;25,300003;9972,000
54743460;23,490005;10004,000
54753448;21,479996;9988,000
54763436;19,320007;9988,000
54773432;17,039993;9996,000
54783424;14,660004;9992,000
54793412;12,229996;9988,000
54803388;9,800003;9976,000
54813400;7,4100037;10012,000
54823396;5,130005;9996,000
54833368;3;9972,000
54843416;1,0599976;10048,000
54853404;-0,7299957;9988,000
54863388;-2,4400024;9984,000
54873344;-4,0899963;9956,000
54883352;-5,720001;10008,000
54893344;-7,3099976;9992,000
54903332;-8,860001;9988,000
54913328;-10,339996;9996,000
54923296;-11,770004;9968,000
54933288;-13,160004;9992,000
54943296;-14,5099945;10008,000
54953284;-15,860001;9988,000
54963272;-17,210007;9988,000
54973252;-18,520004;9980,000
54983256;-19,720001;10004,000
54993220;-20,800003;9964,000
55003216;-21,75;9996,000
55013220;-22,64;10004,000
55023204;-23,570007;9984,000
55033208;-24,529999;10004,000
55043188;-25,509995;9980,000
55053184;-26,490005;9996,000
55063176;-27,380005;9992,000
55073168;-28,160004;9992,000
55083156;-28,830002;9988,000
55093164;-29,429993;10008,000
55103156;-29,960007;9992,000
55113136;-30,449997;9980,000
55123128;-30,940002;9992,000
55133116;-31,509995;9988,000
55143100;-32,160004;9984,000
55153108;-32,869995;10008,000
55163096;-33,550003;9988,000
55173096;-34,119995;10000,000
55183064;-34,550003;9968,000
55193072;-34,850006;10008,000
55203052;-35,070007;9980,000
55213032;-35,240005;9980,000
55223036;-35,410004;10004,000
55233040;-35,559998;10004,000
55243016;-35,64;9976,000
55253028;-35,559998;10012,000
55262992;-35,289993;9964,000
55272992;-34,789993;10000,000
55282988;-34,050003;9996,000
55292972;-33,089996;9984,000
55302956;-31,940002;9984,000
55312944;-30,699997;9988,000
55322944;-29,460007;10000,000
55332924;-28,279999;9980,000
55342944;-27,169998;10020,000
55352920;-26,070007;9976,000
55362908;-24,869995;9988,000
55372908;-23,550003;10000,000
55382908;-22,039993;10000,000
55392912;-20,350006;10004,000
55402904;-18,520004;9992,000
55412892;-16,619995;9988,000
55422884;-14,699997;9992,000
55432872;-12,850006;9988,000
55442864;-11,130005;9992,000
55452844;-9,559998;9980,000
55462856;-8,179993;10012,000
55472836;-6,9799957;9980,000
55482824;-5,9299927;9988,000
55492824;-4,9299927;10000,000
55502808;-3,869995;9984,000
55512808;-2,630005;10000,000
55522788;-1,1499939;9980,000
55532780;0,47999573;9992,000
55542760;2,2700043;9980,000
55552768;4,1399994;10008,000
55562768;6;10000,000
55572756;7,779999;9988,000
55582756;9,429993;10000,000
55592724;10,889999;9968,000
55602732;12,089996;10008,000
55612708;13,0099945;9976,000
55622704;13,639999;9996,000
55632720;14,020004;10016,000
55642700;14,229996;9980,000
55652676;14,330002;9976,000
55662664;14,339996;9988,000
55672652;14,270004;9988,000
55682640;14,130005;9988,000
55692628;13,929993;9988,000
55702616;13,649994;9988,000
55712620;13,270004;10004,000
55722608;12,7599945;9988,000
55732604;12,110001;9996,000
55742588;11,279999;9984,000
55752572;10,270004;9984,000
55762572;9,080002;10000,000
55772552;7,7100067;9980,000
55782552;6,2100067;10000,000
55792544;4,6100006;9992,000
55802532;2,9900055;9988,000
55812532;1,4299927;10000,000
55822532;-0,02999878;10000,000
55832516;-1,3600006;9984,000
55842500;-2,5899963;9984,000
55852500;-3,7200012;10000,000
55862480;-4,7599945;9980,000
55872464;-5,7299957;9984,000
55882464;-6,6799927;10000,000
55892472;-7,630005;10008,000
55902460;-8,610001;9988,000
55912460;-9,649994;10000,000
55922448;-10,7400055;9988,000
55932816;-11,839996;10368,000
55942412;-12,940002;9596,000
55952400;-14,039993;9988,000
55962408;-15,089996;10008,000
55972408;-16,070007;10000,000
55982388;-17;9980,000
55992380;-18;9992,000
